Voltage(V) Current(nA)
  0.00    2.60254300
  1.00    3.92346200
  2.00    4.02031600
  3.00    4.33560500
  4.00    4.59525500
  5.00    4.82193500
  6.00    5.14546700
  7.00    5.15370900
  8.00    5.41954200
  9.00    5.37832800
 10.00    5.60500600
 11.00    6.10988100
 12.00    6.36747100
 13.00    6.27679900
 14.00    6.29946800
 15.00    6.42723300
 16.00    6.60651400
 17.00    6.77549400
 18.00    6.90119700
 19.00    6.80846600
 20.00    6.85586200
 21.00    6.97538300
 22.00    7.02690000
 23.00    6.87440700
 24.00    7.02690100
 25.00    7.09490400
 26.00    7.21030300
 27.00    7.19175800
 28.00    7.30097500
 29.00    7.48231900
 30.00    7.16908800
 31.00    7.49262300
 32.00    7.39370500
 33.00    7.50498500
 34.00    7.50498500
 35.00    7.47613700
 36.00    7.54001800
 37.00    7.32158100
 38.00    7.51116700
 39.00    7.43492200
 40.00    7.37722100
 41.00    7.70281200
 42.00    7.66160000
 43.00    7.78730400
 44.00    7.72342100
 45.00    7.84500400
 46.00    7.76051300
 47.00    7.88415600
 48.00    8.10465300
 49.00    8.00161500
 50.00    8.11907800
 51.00    8.13762600
 52.00    8.26332900
 53.00    8.72904900
 54.00   17.78383000
 55.00   35.00317000
 56.00   60.54368000
 57.00   93.62024000
 58.00  141.66160000
 59.00  210.17630000
 60.00  296.74890000
 60.00  299.23840000
