Voltage(V) Current(nA)
  0.00    0.73143160
  1.00    1.83184500
  2.00    2.46241800
  3.00    3.17335900
  4.00    3.08474900
  5.00    3.96672800
  6.00    3.97909200
  7.00    4.12952300
  8.00    4.04297400
  9.00    4.34177500
 10.00    4.33559300
 11.00    4.63233400
 12.00    4.87137400
 13.00    4.95174100
 14.00    4.71063900
 15.00    5.11247500
 16.00    5.01562300
 17.00    5.04653300
 18.00    5.12071900
 19.00    5.32472700
 20.00    5.25054200
 21.00    5.42776300
 22.00    5.53698100
 23.00    5.50813000
 24.00    5.53903900
 25.00    5.72038100
 26.00    5.87287200
 27.00    5.80693000
 28.00    5.89760100
 29.00    5.88935800
 30.00    5.88111600
 31.00    5.81311300
 32.00    6.11397400
 33.00    5.98208900
 34.00    5.99857400
 35.00    6.08718500
 36.00    6.39216800
 37.00    6.14900600
 38.00    6.26852700
 39.00    6.25822200
 40.00    6.59617700
 41.00    6.34271200
 42.00    6.35919700
 43.00    6.38392400
 44.00    6.64151000
 45.00    6.88055200
 46.00    6.81254900
 47.00    6.78988200
 48.00    6.97534500
 49.00    6.74042600
 50.00    7.03304300
 51.00    6.99389100
 52.00    7.05983400
 53.00    7.66567700
 54.00   16.42982000
 55.00   33.53977000
 56.00   57.27282000
 57.00   91.86574000
 58.00  137.85220000
 59.00  202.75180000
 60.00  296.27240000
 60.00  291.54930000
